Data from Spectrum_HDX010681_14-42-19-702.txt Node
Date: Thu Jul 15 14:42:19 CEST 2021
User: OceanSpectro
Spectrometer: HDX01068
Trigger mode: 0
Integration Time (sec): 1.000000E-1
Scans to average: 1
Nonlinearity correction enabled: false
Boxcar width: 0
Storing dark spectrum: false
XAxis mode: Wavelengths
Number of Pixels in Spectrum: 2068
>>>>>Begin Spectral Data<<<<<
193.945	1885
194.495	1347
195.045	1398
195.594	1385
196.143	1523
196.692	1546
197.241	1529
197.79	1519
198.339	1508
198.888	1536
199.436	1503
199.985	1500
200.533	1492
201.081	1544
201.629	1537
202.177	1527
202.725	1542
203.273	1544
203.82	1507
204.368	1514
204.915	1523
205.462	1540
206.009	1553
206.556	1529
207.103	1546
207.65	1529
208.197	1563
208.743	1526
209.289	1544
209.836	1539
210.382	1532
210.928	1535
211.474	1537
212.02	1577
212.565	1554
213.111	1532
213.656	1557
214.202	1561
214.747	1573
215.292	1576
215.837	1565
216.382	1577
216.926	1556
217.471	1565
218.016	1540
218.56	1563
219.104	1597
219.648	1581
220.192	1545
220.736	1543
221.28	1591
221.824	1552
222.367	1588
222.911	1572
223.454	1598
223.997	1602
224.54	1567
225.083	1573
225.626	1565
226.169	1580
226.711	1526
227.254	1570
227.796	1577
228.338	1620
228.881	1599
229.423	1564
229.965	1579
230.506	1562
231.048	1568
231.589	1554
232.131	1577
232.672	1564
233.213	1570
233.754	1563
234.295	1554
234.836	1547
235.377	1550
235.918	1547
236.458	1555
236.998	1581
237.539	1564
238.079	1587
238.619	1566
239.159	1553
239.698	1592
240.238	1545
240.778	1559
241.317	1608
241.856	1569
242.396	1562
242.935	1578
243.474	1581
244.012	1554
244.551	1543
245.09	1585
245.628	1565
246.167	1579
246.705	1562
247.243	1613
247.781	1590
248.319	1573
248.857	1583
249.394	1603
249.932	1583
250.469	1560
251.007	1576
251.544	1563
252.081	1567
252.618	1535
253.155	1580
253.691	1567
254.228	1569
254.764	1541
255.301	1553
255.837	1557
256.373	1602
256.909	1581
257.445	1548
257.981	1582
258.517	1576
259.052	1574
259.588	1572
260.123	1594
260.658	1556
261.193	1582
261.728	1599
262.263	1631
262.798	1579
263.332	1584
263.867	1572
264.401	1541
264.936	1594
265.47	1590
266.004	1571
266.538	1600
267.071	1569
267.605	1586
268.139	1556
268.672	1565
269.206	1555
269.739	1578
270.272	1529
270.805	1542
271.338	1563
271.87	1549
272.403	1590
272.936	1572
273.468	1542
274	1564
274.532	1595
275.065	1554
275.596	1571
276.128	1610
276.66	1536
277.192	1544
277.723	1576
278.254	1555
278.786	1550
279.317	1570
279.848	1572
280.379	1588
280.91	1570
281.44	1564
281.971	1582
282.501	1631
283.031	1570
283.562	1594
284.092	1612
284.622	1554
285.152	1622
285.681	1601
286.211	1608
286.74	1551
287.27	1573
287.799	1547
288.328	1547
288.857	1582
289.386	1575
289.915	1567
290.444	1608
290.972	1544
291.501	1580
292.029	1558
292.557	1583
293.086	1590
293.614	1534
294.141	1574
294.669	1554
295.197	1588
295.724	1575
296.252	1591
296.779	1541
297.306	1567
297.833	1579
298.36	1580
298.887	1588
299.414	1595
299.941	1573
300.467	1525
300.993	1579
301.52	1531
302.046	1567
302.572	1544
303.098	1586
303.624	1574
304.149	1571
304.675	1596
305.2	1564
305.726	1568
306.251	1563
306.776	1586
307.301	1547
307.826	1551
308.351	1625
308.876	1571
309.4	1590
309.924	1547
310.449	1569
310.973	1558
311.497	1538
312.021	1572
312.545	1585
313.069	1571
313.592	1532
314.116	1538
314.639	1541
315.163	1548
315.686	1576
316.209	1555
316.732	1563
317.255	1582
317.777	1558
318.3	1538
318.822	1545
319.345	1595
319.867	1565
320.389	1593
320.911	1583
321.433	1578
321.955	1561
322.477	1559
322.998	1559
323.52	1556
324.041	1588
324.562	1530
325.083	1537
325.604	1541
326.125	1546
326.646	1581
327.167	1577
327.687	1552
328.208	1580
328.728	1548
329.248	1557
329.768	1585
330.288	1557
330.808	1540
331.328	1574
331.847	1557
332.367	1555
332.886	1558
333.406	1609
333.925	1555
334.444	1582
334.963	1567
335.482	1548
336	1540
336.519	1599
337.037	1573
337.556	1569
338.074	1583
338.592	1583
339.11	1555
339.628	1564
340.146	1566
340.664	1567
341.181	1561
341.699	1558
342.216	1591
342.733	1568
343.25	1552
343.767	1572
344.284	1586
344.801	1557
345.318	1569
345.834	1544
346.351	1570
346.867	1534
347.383	1559
347.899	1534
348.415	1589
348.931	1543
349.447	1591
349.963	1566
350.478	1563
350.994	1542
351.509	1601
352.024	1563
352.539	1572
353.054	1576
353.569	1549
354.084	1537
354.599	1585
355.113	1558
355.627	1550
356.142	1568
356.656	1547
357.17	1576
357.684	1591
358.198	1542
358.712	1562
359.225	1545
359.739	1590
360.252	1573
360.765	1553
361.279	1598
361.792	1580
362.305	1547
362.817	1566
363.33	1573
363.843	1566
364.355	1599
364.868	1585
365.38	1587
365.892	1585
366.404	1565
366.916	1563
367.428	1596
367.939	1545
368.451	1571
368.963	1560
369.474	1541
369.985	1563
370.496	1585
371.007	1537
371.518	1525
372.029	1542
372.54	1541
373.05	1600
373.561	1559
374.071	1555
374.581	1547
375.092	1571
375.602	1566
376.111	1559
376.621	1577
377.131	1546
377.641	1573
378.15	1553
378.659	1623
379.169	1565
379.678	1580
380.187	1560
380.696	1551
381.204	1552
381.713	1555
382.222	1599
382.73	1580
383.238	1589
383.747	1584
384.255	1572
384.763	1577
385.271	1570
385.778	1599
386.286	1589
386.794	1541
387.301	1546
387.808	1600
388.316	1534
388.823	1546
389.33	1550
389.837	1538
390.343	1567
390.85	1566
391.357	1565
391.863	1597
392.369	1579
392.876	1607
393.382	1549
393.888	1591
394.394	1568
394.899	1561
395.405	1578
395.911	1551
396.416	1575
396.921	1571
397.427	1574
397.932	1578
398.437	1615
398.942	1564
399.446	1571
399.951	1601
400.456	1590
400.96	1569
401.464	1569
401.969	1678
402.473	1794
402.977	2148
403.481	2552
403.984	3066
404.488	2928
404.992	2005
405.495	1720
405.998	1716
406.502	1727
407.005	1816
407.508	1855
408.011	1708
408.513	1661
409.016	1678
409.519	1642
410.021	1646
410.523	1664
411.026	1656
411.528	1674
412.03	1664
412.532	1675
413.033	1676
413.535	1695
414.037	1650
414.538	1709
415.039	1670
415.541	1626
416.042	1721
416.543	1702
417.044	1703
417.544	1727
418.045	1721
418.546	1725
419.046	1700
419.546	1735
420.047	1761
420.547	1740
421.047	1782
421.547	1750
422.046	1792
422.546	1751
423.046	1776
423.545	1761
424.045	1781
424.544	1785
425.043	1740
425.542	1787
426.041	1807
426.54	1784
427.038	1785
427.537	1835
428.035	1835
428.534	1813
429.032	1796
429.53	1841
430.028	1874
430.526	1876
431.024	1895
431.522	1884
432.019	1924
432.517	1959
433.014	2112
433.511	2516
434.008	3782
434.506	6203
435.002	9273
435.499	10297
435.996	5706
436.493	2757
436.989	2246
437.485	2155
437.982	2068
438.478	2035
438.974	2057
439.47	2047
439.966	2048
440.461	2050
440.957	2009
441.453	2053
441.948	2069
442.443	2074
442.938	2039
443.434	2077
443.928	2086
444.423	2076
444.918	2092
445.413	2059
445.907	2096
446.402	2076
446.896	2160
447.39	2139
447.884	2145
448.378	2130
448.872	2112
449.366	2197
449.86	2145
450.353	2153
450.846	2176
451.34	2140
451.833	2184
452.326	2163
452.819	2148
453.312	2149
453.805	2165
454.297	2148
454.79	2151
455.282	2087
455.775	2117
456.267	2135
456.759	2106
457.251	2085
457.743	2117
458.235	2097
458.727	2114
459.218	2039
459.71	2095
460.201	2055
460.692	2092
461.183	2108
461.674	2064
462.165	2035
462.656	2051
463.147	2032
463.638	2047
464.128	2061
464.618	2041
465.109	2077
465.599	2034
466.089	2061
466.579	2040
467.069	2028
467.559	2066
468.048	2015
468.538	2001
469.027	1986
469.516	1959
470.006	1993
470.495	1998
470.984	1988
471.473	2007
471.961	2000
472.45	2009
472.939	2000
473.427	1979
473.915	1972
474.404	1969
474.892	1965
475.38	1972
475.868	1942
476.355	2016
476.843	1987
477.331	1974
477.818	1989
478.305	1983
478.793	1988
479.28	2024
479.767	2028
480.254	2087
480.741	2179
481.227	2182
481.714	2303
482.2	2392
482.687	2520
483.173	2712
483.659	2806
484.145	3042
484.631	3172
485.117	3394
485.603	3601
486.089	3638
486.574	3690
487.06	3567
487.545	3507
488.03	3382
488.515	3222
489	3191
489.485	3078
489.97	2960
490.455	2995
490.939	3018
491.424	2972
491.908	2894
492.392	2777
492.876	2737
493.36	2635
493.844	2609
494.328	2547
494.812	2492
495.295	2497
495.779	2456
496.262	2400
496.746	2368
497.229	2323
497.712	2280
498.195	2213
498.678	2189
499.16	2152
499.643	2125
500.125	2168
500.608	2083
501.09	2029
501.572	2013
502.055	1982
502.537	1989
503.018	1985
503.5	1969
503.982	1932
504.463	1946
504.945	1910
505.426	1935
505.908	1877
506.389	1891
506.87	1854
507.351	1877
507.831	1885
508.312	1885
508.793	1844
509.273	1856
509.754	1883
510.234	1875
510.714	1896
511.194	1873
511.674	1861
512.154	1895
512.634	1885
513.114	1842
513.593	1862
514.073	1828
514.552	1852
515.031	1866
515.51	1836
515.989	1834
516.468	1891
516.947	1878
517.426	1805
517.904	1841
518.383	1859
518.861	1859
519.339	1872
519.818	1874
520.296	1867
520.774	1866
521.251	1873
521.729	1874
522.207	1869
522.684	1851
523.162	1869
523.639	1868
524.116	1900
524.593	1864
525.07	1831
525.547	1883
526.024	1888
526.501	1892
526.977	1904
527.454	1910
527.93	1918
528.406	1937
528.883	1892
529.359	1895
529.835	1931
530.31	1926
530.786	1958
531.262	1979
531.737	2046
532.213	2092
532.688	2156
533.163	2237
533.638	2196
534.113	2182
534.588	2229
535.063	2327
535.538	2398
536.012	2618
536.487	2875
536.961	3128
537.435	3532
537.909	3743
538.384	4227
538.857	4898
539.331	6000
539.805	7519
540.279	9500
540.752	11881
541.226	13718
541.699	13580
542.172	12220
542.645	11247
543.118	11000
543.591	11290
544.064	11962
544.537	13098
545.009	16775
545.482	22272
545.954	20988
546.426	14256
546.898	10221
547.37	8994
547.842	8187
548.314	7432
548.786	6741
549.258	6321
549.729	5702
550.201	5153
550.672	4778
551.143	4427
551.614	4134
552.085	3870
552.556	3651
553.027	3370
553.498	3139
553.968	2957
554.439	2814
554.909	2706
555.379	2603
555.85	2561
556.32	2477
556.79	2411
557.259	2363
557.729	2365
558.199	2279
558.668	2240
559.138	2287
559.607	2162
560.076	2178
560.546	2161
561.015	2130
561.483	2111
561.952	2106
562.421	2069
562.89	2128
563.358	2071
563.826	2047
564.295	2048
564.763	2007
565.231	2095
565.699	1968
566.167	1996
566.635	2034
567.102	2000
567.57	1973
568.037	2002
568.505	2033
568.972	1959
569.439	1969
569.906	1918
570.373	1913
570.84	1924
571.307	1913
571.773	1975
572.24	1918
572.706	1939
573.173	1926
573.639	1929
574.105	2011
574.571	2125
575.037	2227
575.503	2541
575.968	3448
576.434	4804
576.899	4694
577.365	3506
577.83	3283
578.295	4380
578.76	5242
579.225	4521
579.69	3700
580.155	3725
580.62	3477
581.084	3394
581.549	3656
582.013	4100
582.477	4294
582.941	4439
583.405	4505
583.869	4399
584.333	4319
584.797	4160
585.261	4159
585.724	4175
586.188	4642
586.651	5346
587.114	5564
587.577	4797
588.04	3897
588.503	3526
588.966	3286
589.429	3247
589.891	3331
590.354	3387
590.816	3605
591.278	3785
591.741	4076
592.203	4367
592.665	4854
593.127	4631
593.588	3979
594.05	3435
594.512	3101
594.973	2889
595.435	2864
595.896	2896
596.357	2962
596.818	2891
597.279	3012
597.74	3163
598.201	3454
598.661	3646
599.122	3770
599.582	3619
600.043	3365
600.503	3130
600.963	2872
601.423	2692
601.883	2622
602.343	2530
602.802	2554
603.262	2533
603.722	2579
604.181	2691
604.64	2705
605.1	2736
605.559	2864
606.018	2932
606.477	3100
606.935	3360
607.394	3734
607.853	4164
608.311	5041
608.77	6323
609.228	8432
609.686	12137
610.144	18394
610.602	27341
611.06	32199
611.518	26971
611.976	18715
612.433	13932
612.891	12085
613.348	10901
613.805	10316
614.263	9680
614.72	8601
615.177	7258
615.633	6197
616.09	5329
616.547	4702
617.004	4401
617.46	4125
617.916	3990
618.373	3906
618.829	3831
619.285	3905
619.741	4056
620.197	4176
620.652	4185
621.108	4193
621.564	4205
622.019	4252
622.474	4341
622.93	4487
623.385	4512
623.84	4584
624.295	4567
624.75	4609
625.204	4608
625.659	4571
626.114	4567
626.568	4418
627.022	4273
627.477	4121
627.931	4098
628.385	4157
628.839	4248
629.293	4496
629.746	5060
630.2	5992
630.653	6468
631.107	5865
631.56	4577
632.013	3587
632.467	2996
632.92	2697
633.372	2616
633.825	2577
634.278	2594
634.731	2580
635.183	2606
635.636	2451
636.088	2351
636.54	2288
636.992	2246
637.444	2202
637.896	2242
638.348	2185
638.8	2179
639.251	2222
639.703	2163
640.154	2128
640.606	2131
641.057	2149
641.508	2115
641.959	2139
642.41	2112
642.861	2169
643.311	2187
643.762	2241
644.212	2114
644.663	2191
645.113	2186
645.563	2197
646.013	2202
646.463	2109
646.913	2242
647.363	2207
647.813	2218
648.262	2238
648.712	2341
649.161	2554
649.611	2790
650.06	3129
650.509	3081
650.958	2781
651.407	2508
651.856	2439
652.304	2474
652.753	2478
653.202	2483
653.65	2355
654.098	2276
654.546	2242
654.995	2212
655.443	2213
655.89	2150
656.338	2174
656.786	2193
657.234	2217
657.681	2271
658.128	2226
658.576	2156
659.023	2075
659.47	2026
659.917	2043
660.364	2065
660.811	2207
661.258	2279
661.704	2554
662.151	2710
662.597	2624
663.043	2411
663.49	2207
663.936	2158
664.382	2128
664.828	2100
665.273	2079
665.719	2059
666.165	2091
666.61	2065
667.056	2082
667.501	2094
667.946	2095
668.391	2085
668.836	2028
669.281	2029
669.726	2070
670.171	2011
670.615	2059
671.06	2009
671.504	2017
671.949	2050
672.393	1976
672.837	2001
673.281	1948
673.725	2016
674.169	2025
674.613	1971
675.056	1937
675.5	1993
675.943	1955
676.386	2011
676.83	1964
677.273	1932
677.716	1984
678.159	2022
678.602	1959
679.044	2033
679.487	2027
679.93	2047
680.372	2084
680.814	2089
681.257	2040
681.699	2042
682.141	2003
682.583	1982
683.025	1982
683.466	2015
683.908	1995
684.35	1996
684.791	2032
685.232	2018
685.674	2115
686.115	2244
686.556	2330
686.997	2478
687.438	2609
687.879	2501
688.319	2287
688.76	2125
689.2	1997
689.641	1960
690.081	1952
690.521	2004
690.961	1903
691.401	1869
691.841	1927
692.281	1917
692.721	2044
693.16	2314
693.6	2352
694.039	2190
694.478	1933
694.917	1885
695.357	1807
695.796	1835
696.234	1811
696.673	1797
697.112	1835
697.551	1774
697.989	1796
698.428	1800
698.866	1811
699.304	1787
699.742	1810
700.18	1811
700.618	1837
701.056	1828
701.494	1841
701.931	1852
702.369	1871
702.806	1892
703.244	1987
703.681	2066
704.118	2127
704.555	2188
704.992	2322
705.429	2656
705.866	3092
706.302	3488
706.739	3762
707.175	3650
707.612	3314
708.048	3301
708.484	3939
708.92	4237
709.356	3517
709.792	2640
710.228	2367
710.664	2367
711.099	2726
711.535	3284
711.97	3762
712.405	3613
712.841	2910
713.276	2331
713.711	2038
714.146	1949
714.58	1874
715.015	1824
715.45	1841
715.884	1792
716.319	1803
716.753	1775
717.187	1731
717.621	1752
718.055	1760
718.489	1716
718.923	1725
719.357	1686
719.791	1692
720.224	1748
720.658	1756
721.091	1769
721.524	1794
721.957	1812
722.39	1729
722.823	1739
723.256	1710
723.689	1722
724.122	1734
724.554	1756
724.987	1705
725.419	1709
725.851	1714
726.284	1715
726.716	1726
727.148	1685
727.58	1751
728.011	1727
728.443	1697
728.875	1712
729.306	1703
729.738	1678
730.169	1711
730.6	1714
731.031	1706
731.463	1727
731.893	1734
732.324	1725
732.755	1749
733.186	1722
733.616	1704
734.047	1822
734.477	1758
734.907	1756
735.338	1757
735.768	1707
736.198	1760
736.628	1731
737.057	1734
737.487	1727
737.917	1732
738.346	1765
738.776	1750
739.205	1716
739.634	1773
740.063	1752
740.492	1787
740.921	1769
741.35	1779
741.779	1779
742.207	1847
742.636	1807
743.064	1798
743.493	1815
743.921	1786
744.349	1773
744.777	1762
745.205	1756
745.633	1753
746.061	1782
746.489	1788
746.916	1785
747.344	1754
747.771	1730
748.198	1764
748.626	1759
749.053	1740
749.48	1753
749.907	1738
750.333	1798
750.76	1755
751.187	1780
751.613	1763
752.04	1734
752.466	1748
752.892	1778
753.319	1737
753.745	1749
754.171	1778
754.596	1732
755.022	1712
755.448	1743
755.874	1734
756.299	1720
756.724	1733
757.15	1747
757.575	1790
758	1836
758.425	1958
758.85	1934
759.275	1965
759.7	2329
760.124	2463
760.549	1963
760.973	1690
761.398	1662
761.822	1673
762.246	1632
762.67	1632
763.094	1710
763.518	1717
763.942	1664
764.365	1658
764.789	1645
765.213	1669
765.636	1669
766.059	1673
766.482	1685
766.906	1709
767.329	1710
767.752	1742
768.174	1778
768.597	1764
769.02	1818
769.442	1840
769.865	1794
770.287	1750
770.71	1749
771.132	1702
771.554	1752
771.976	1765
772.398	1736
772.819	1773
773.241	1730
773.663	1723
774.084	1731
774.506	1736
774.927	1715
775.348	1693
775.769	1741
776.191	1689
776.612	1735
777.032	1702
777.453	1750
777.874	1708
778.294	1692
778.715	1689
779.135	1707
779.556	1711
779.976	1669
780.396	1662
780.816	1703
781.236	1697
781.656	1730
782.075	1714
782.495	1694
782.915	1706
783.334	1689
783.753	1738
784.173	1742
784.592	1733
785.011	1779
785.43	1786
785.849	1735
786.268	1703
786.686	1697
787.105	1646
787.524	1739
787.942	1679
788.36	1691
788.779	1698
789.197	1652
789.615	1697
790.033	1654
790.451	1678
790.868	1699
791.286	1662
791.704	1686
792.121	1698
792.539	1688
792.956	1651
793.373	1679
793.79	1673
794.207	1645
794.624	1691
795.041	1693
795.458	1685
795.874	1685
796.291	1654
796.707	1689
797.124	1676
797.54	1692
797.956	1667
798.372	1678
798.788	1661
799.204	1685
799.62	1698
800.036	1654
800.451	1697
800.867	1668
801.282	1698
801.698	1688
802.113	1673
802.528	1664
802.943	1693
803.358	1680
803.773	1686
804.188	1667
804.603	1677
805.017	1691
805.432	1720
805.846	1766
806.261	1719
806.675	1710
807.089	1673
807.503	1674
807.917	1695
808.331	1659
808.745	1705
809.158	1736
809.572	1827
809.986	2066
810.399	2355
810.812	2867
811.226	3267
811.639	2484
812.052	1911
812.465	1713
812.878	1682
813.29	1632
813.703	1655
814.116	1643
814.528	1646
814.94	1620
815.353	1653
815.765	1625
816.177	1599
816.589	1621
817.001	1636
817.413	1645
817.825	1676
818.236	1701
818.648	1810
819.059	1840
819.471	1754
819.882	1638
820.293	1671
820.704	1680
821.115	1636
821.526	1646
821.937	1599
822.348	1618
822.759	1592
823.169	1612
823.58	1616
823.99	1631
824.4	1639
824.81	1672
825.221	1704
825.631	1723
826.041	1878
826.45	1874
826.86	1696
827.27	1673
827.679	1656
828.089	1702
828.498	1675
828.907	1732
829.317	1883
829.726	2058
830.135	1845
830.544	1709
830.952	1651
831.361	1634
831.77	1610
832.178	1645
832.587	1624
832.995	1667
833.403	1619
833.812	1608
834.22	1608
834.628	1609
835.036	1665
835.444	1618
835.851	1616
836.259	1655
836.666	1629
837.074	1655
837.481	1634
837.889	1619
838.296	1619
838.703	1628
839.11	1662
839.517	1635
839.924	1643
840.33	1684
840.737	1672
841.143	1652
841.55	1614
841.956	1636
842.363	1642
842.769	1662
843.175	1642
843.581	1628
843.987	1655
844.393	1671
844.798	1675
845.204	1627
845.61	1627
846.015	1610
846.42	1621
846.826	1635
847.231	1668
847.636	1623
848.041	1633
848.446	1674
848.851	1655
849.255	1619
849.66	1634
850.065	1651
850.469	1653
850.874	1739
851.278	1668
851.682	1651
852.086	1644
852.49	1640
852.894	1638
853.298	1624
853.702	1625
854.105	1610
854.509	1632
854.912	1627
855.316	1591
855.719	1614
856.122	1643
856.525	1595
856.928	1622
857.331	1611
857.734	1628
858.137	1637
858.54	1634
858.942	1670
859.345	1624
859.747	1662
860.149	1615
860.552	1682
